File: data/Temperature Sweep/Td.txt
#EXPORTTYPE:  	DATA COMPARE                 	DATA COMPARE                 	DATA COMPARE
#FILE:        	3.ngb-dm2                    	5.ngb-dm2                    	10.ngb-dm2
#FORMAT:      	NETZSCH5                     	NETZSCH5                     	NETZSCH5
#FTYPE:       	ANSI                         	ANSI                         	ANSI
#IDENTITY:    	3                            	2                            	1
#DECIMAL:     	POINT                        	POINT                        	POINT
#SEPARATOR:   	TAB                          	TAB                          	TAB
#MTYPE:       	DMA                          	DMA                          	DMA
#INSTRUMENT:  	NETZSCH DMA 242              	NETZSCH DMA 242              	NETZSCH DMA 242
#PROJECT:     	Amtrol                       	Amtrol                       	Amtrol
#DATE/TIME:   	5/29/2024 12:46:57 PM (UTC+1)	5/29/2024 11:00:19 AM (UTC+1)	5/29/2024 9:25:24 AM (UTC+1)
#LABORATORY:  	Piep                         	Piep                         	Piep
#OPERATOR:    	LG                           	LG                           	LG
#REMARK:
#SAMPLEHOLDER:	SingleCantilever16           	SingleCantilever16           	SingleCantilever16
#SAMPLE:      	Resin                        	Resin                        	Resin
#SAMPLEDIM/MM:	16.000x10.660x3.660          	16.000x10.560x3.640          	16.000x10.720x3.700
#MATERIAL:
#CORR. CODE:  	0                            	0                            	0
#RANGE:       	90.0°C/3.0(K/min)/260.0°C    	90.0°C/5.0(K/min)/260.0°C    	25.0°C/10.0(K/min)/400.0°C
#SEGMENT:     	S1/2                         	S1/2                         	S1/2
#SEG. 1:      	90.0°C/3.0(K/min)/260.0°C    	90.0°C/5.0(K/min)/260.0°C    	25.0°C/10.0(K/min)/400.0°C

##Temp./°C	tan d(1.000 Hz)	tan d(1.000 Hz)	tan d(1.000 Hz)
 24.59108	              	              	 1.570357e-002
 26.59108	              	              	 1.526162e-002
 28.59108	              	              	 1.526992e-002
 30.59108	              	              	 1.576001e-002
 32.59108	              	              	 1.570825e-002
 34.59108	              	              	 1.570246e-002
 36.59108	              	              	 1.569142e-002
 38.59108	              	              	 1.570085e-002
 40.59108	              	              	 1.570132e-002
 42.59108	              	              	 1.598869e-002
 44.59108	              	              	 1.574089e-002
 46.59108	              	              	 1.614424e-002
 48.59108	              	              	 1.559635e-002
 50.59108	              	              	 1.610921e-002
 52.59108	              	              	 1.589074e-002
 54.59108	              	              	 1.623310e-002
 56.59108	              	              	 1.620861e-002
 58.59108	              	              	 1.598607e-002
 60.59108	              	              	 1.605217e-002
 62.59108	              	              	 1.667974e-002
 64.59108	              	              	 1.622045e-002
 66.59108	              	              	 1.656638e-002
 68.59108	              	              	 1.615900e-002
 70.59108	              	              	 1.613143e-002
 72.59108	              	              	 1.671092e-002
 74.59108	              	              	 1.641996e-002
 76.59108	              	              	 1.672996e-002
 78.59108	              	              	 1.632477e-002
 80.59108	              	              	 1.614139e-002
 82.59108	              	              	 1.665936e-002
 84.59108	              	              	 1.616362e-002
 86.59108	              	              	 1.638487e-002
 88.59108	 1.391002e-002	              	 1.643344e-002
 90.59108	 1.337464e-002	 1.279987e-002	 1.668532e-002
 92.59108	 1.392420e-002	 1.278351e-002	 1.668955e-002
 94.59108	 1.391272e-002	 1.281400e-002	 1.665657e-002
 96.59108	 1.444600e-002	 1.277717e-002	 1.673323e-002
 98.59108	 1.445794e-002	 1.279064e-002	 1.616960e-002
100.591	 1.444186e-002	 1.262714e-002	 1.666976e-002
102.591	 1.492989e-002	 1.330938e-002	 1.683646e-002
104.591	 1.549611e-002	 1.387607e-002	 1.721928e-002
106.591	 1.547664e-002	 1.374387e-002	 1.702018e-002
108.591	 1.613515e-002	 1.409320e-002	 1.715039e-002
110.591	 1.607758e-002	 1.385337e-002	 1.696532e-002
112.591	 1.661755e-002	 1.435734e-002	 1.728317e-002
114.591	 1.691080e-002	 1.497227e-002	 1.775868e-002
116.591	 1.717307e-002	 1.556416e-002	 1.768664e-002
118.591	 1.813901e-002	 1.546425e-002	 1.756566e-002
120.591	 1.918237e-002	 1.604303e-002	 1.748689e-002
122.591	 1.995045e-002	 1.660824e-002	 1.766330e-002
124.591	 2.104466e-002	 1.714967e-002	 1.825797e-002
126.591	 2.237224e-002	 1.716046e-002	 1.877295e-002
128.591	 2.410766e-002	 1.767236e-002	 1.875534e-002
130.591	 2.679160e-002	 1.829739e-002	 1.932667e-002
132.591	 2.949343e-002	 1.887164e-002	 1.933339e-002
134.591	 3.360358e-002	 1.990835e-002	 2.032917e-002
136.591	 4.019620e-002	 2.022033e-002	 2.066451e-002
138.591	 5.139853e-002	 2.131731e-002	 2.157990e-002
140.591	 6.904245e-002	 2.214373e-002	 2.168407e-002
142.591	 9.077836e-002	 2.430791e-002	 2.261987e-002
144.591	       0.14701	 2.598694e-002	 2.442645e-002
146.591	       0.20572	 2.924102e-002	 2.574426e-002
148.591	       0.31623	 3.220276e-002	 2.745349e-002
150.591	       0.46954	 3.882332e-002	 2.938777e-002
152.591	       0.66782	 4.383458e-002	 3.125088e-002
154.591	       0.85862	 5.521481e-002	 3.486479e-002
156.591	       1.00361	 8.243487e-002	 4.242333e-002
158.591	       1.00496	       0.10185	 4.868694e-002
160.591	       0.83896	       0.17088	 6.144459e-002
162.591	       0.68883	       0.21994	 7.424218e-002
164.591	       0.47989	       0.39512	 9.901812e-002
166.591	       0.34202	       0.55632	       0.13274
168.591	       0.22879	       0.86163	       0.21377
170.591	       0.15770	       0.96383	       0.34510
172.591	       0.10486	       0.98672	       0.49882
174.591	 6.682347e-002	       0.92058	       0.72092
176.591	 5.055819e-002	       0.69784	       0.80777
178.591	 3.490008e-002	       0.53798	       0.66718
180.591	 2.399873e-002	       0.39349	       0.45998
182.591	 1.890003e-002	       0.28444	       0.36449
184.591	 1.854321e-002	       0.19888	       0.16835
186.591	 1.360075e-002	       0.12412	       0.11805
188.591	 1.235785e-002	 9.065660e-002	 6.506805e-002
190.591	 8.521289e-003	 5.667733e-002	 3.980967e-002
192.591	 1.341723e-002	 4.618205e-002	 2.777959e-002
194.591	 7.979863e-003	 3.027965e-002	 1.351011e-002
196.591	 9.099439e-003	 1.959453e-002	 1.438513e-002
198.591	 8.326517e-003	 1.969281e-002	 1.328297e-002
200.591	 8.959925e-003	 1.345904e-002	 9.984185e-003
202.591	 8.374275e-003	 1.387615e-002	 8.419155e-003
204.591	 2.690885e-003	 9.263343e-003	 8.498598e-003
206.591	 8.560416e-003	 3.861054e-003	 8.445039e-003
208.591	 3.482097e-003	 9.909163e-003	 8.411000e-003
210.591	 3.363411e-003	 7.922689e-003	 8.535735e-003
212.591	 5.707899e-003	 8.548995e-003	 4.597488e-003
214.591	       0.18719	 4.505715e-003	-5.598296e-004
216.591	       0.56258	 8.599287e-003	 3.778044e-003
218.591	       0.73393	 8.702419e-003	 3.974469e-003
220.591	       1.01843	 5.021755e-003	 3.434103e-003
222.591	       1.43913	 4.162454e-003	 5.376876e-003
224.591	       1.54592	 6.491447e-003	-1.292303e-003
226.591	       1.32899	 3.609274e-003	 3.547109e-003
228.591	       1.39099	 7.832932e-003	 3.636084e-003
230.591	       1.77288	 3.898463e-003	 1.525047e-004
232.591	       1.96637	 3.274986e-003	 3.491313e-003
234.591	       1.64533	 3.370961e-003	 1.851739e-003
236.591	       1.59094	 3.331885e-003	 3.496190e-003
238.591	       1.83018	 3.331596e-003
240.591	       1.62037
242.591	       1.67197
244.591	       1.81377
246.591	       1.74334
248.591	       1.82650
250.591	       2.07068
251.591	       1.78049