File: Temperature Sweep TEST/Ep - Short.txt
#EXPORTTYPE:  	DATA COMPARE                 	DATA COMPARE                 	DATA COMPARE
#FILE:        	Sample1.ngb-dm2                    	Sample2.ngb-dm2                    	Sample3.ngb-dm2
#FORMAT:      	NETZSCH5                     	NETZSCH5                     	NETZSCH5
#FTYPE:       	ANSI                         	ANSI                         	ANSI
#IDENTITY:    	3	2	1
#DECIMAL:     	POINT                        	POINT                        	POINT
#SEPARATOR:   	TAB                          	TAB                          	TAB
#MTYPE:       	DMA                          	DMA                          	DMA
#INSTRUMENT:  	NETZSCH DMA 242              	NETZSCH DMA 242              	NETZSCH DMA 242
#PROJECT:     	Amtrol                       	Amtrol                       	Amtrol
#DATE/TIME:   	5/29/2024 12:46:57 PM (UTC+1)	5/29/2024 11:00:19 AM (UTC+1)	5/29/2024 9:25:24 AM (UTC+1)
#LABORATORY:  	Piep                         	Piep                         	Piep
#OPERATOR:    	LG                           	LG                           	LG
#REMARK:
#SAMPLEHOLDER:	SingleCantilever16           	SingleCantilever16           	SingleCantilever16
#SAMPLE:      	Resin                        	Resin                        	Resin
#SAMPLEDIM/MM:	16.000x10.660x3.660          	16.000x10.560x3.640          	16.000x10.720x3.700
#MATERIAL:
#CORR. CODE:  	0	0	0
#RANGE:       	90.0°C/3.0(K/min)/260.0°C    	90.0°C/5.0(K/min)/260.0°C    	25.0°C/10.0(K/min)/400.0°C
#SEGMENT:     	S1/2                         	S1/2                         	S1/2
#SEG. 1:      	90.0°C/3.0(K/min)/260.0°C    	90.0°C/5.0(K/min)/260.0°C    	25.0°C/10.0(K/min)/400.0°C

##Temp./°C	E'(1.000 Hz)/MPa	E'(1.000 Hz)/MPa	E'(1.000 Hz)/MPa
89.59108	1204.05	          	1240.44
90.59108	1203.16	1179.16	1238.57
91.59108	1202.17	1178.36	1236.89
92.59108	1201.65	1179.27	1235.6
93.59108	1200.15	1178.53	1232.92
94.59108	1199.22	1178.38	1230.34
95.59108	1196.95	1177.77	1228.74
96.59108	1195.44	1177.15	1227.37
97.59108	1193.51	1176.09	1226.35
98.59108	1192.65	1175.59	1225.23
99.59108	1190.05	1174.24	1219.53
100.591	1187.4	1173.07	1218.13
101.591	1185.69	1171.62	1216.87