File: Temperature Sweep TEST/Td.txt
#EXPORTTYPE:  	DATA COMPARE                 	DATA COMPARE                 	DATA COMPARE
#FILE:        	Sample1.ngb-dm2                    	Sample2.ngb-dm2                    	Sample3.ngb-dm2
#FORMAT:      	NETZSCH5                     	NETZSCH5                     	NETZSCH5
#FTYPE:       	ANSI                         	ANSI                         	ANSI
#IDENTITY:    	3	2	1
#DECIMAL:     	POINT                        	POINT                        	POINT
#SEPARATOR:   	TAB                          	TAB                          	TAB
#MTYPE:       	DMA                          	DMA                          	DMA
#INSTRUMENT:  	NETZSCH DMA 242              	NETZSCH DMA 242              	NETZSCH DMA 242
#PROJECT:     	Amtrol                       	Amtrol                       	Amtrol
#DATE/TIME:   	5/29/2024 12:46:57 PM (UTC+1)	5/29/2024 11:00:19 AM (UTC+1)	5/29/2024 9:25:24 AM (UTC+1)
#LABORATORY:  	Piep                         	Piep                         	Piep
#OPERATOR:    	LG                           	LG                           	LG
#REMARK:
#SAMPLEHOLDER:	SingleCantilever16           	SingleCantilever16           	SingleCantilever16
#SAMPLE:      	Resin                        	Resin                        	Resin
#SAMPLEDIM/MM:	16.000x10.660x3.660          	16.000x10.560x3.640          	16.000x10.720x3.700
#MATERIAL:
#CORR. CODE:  	0	0	0
#RANGE:       	90.0°C/3.0(K/min)/260.0°C    	90.0°C/5.0(K/min)/260.0°C    	25.0°C/10.0(K/min)/400.0°C
#SEGMENT:     	S1/2                         	S1/2                         	S1/2
#SEG. 1:      	90.0°C/3.0(K/min)/260.0°C    	90.0°C/5.0(K/min)/260.0°C    	25.0°C/10.0(K/min)/400.0°C

##Temp./°C	tan d(1.000 Hz)	tan d(1.000 Hz)	tan d(1.000 Hz)
24.59108	              	              	1.57E-02
25.59108	              	              	1.56E-02
26.59108	              	              	1.53E-02
27.59108	              	              	1.56E-02
28.59108	              	              	1.53E-02
29.59108	              	              	1.55E-02
30.59108	              	              	1.58E-02
31.59108	              	              	1.57E-02
32.59108	              	              	1.57E-02
33.59108	              	              	1.57E-02
34.59108	              	              	1.57E-02
35.59108	              	              	1.57E-02
36.59108	              	              	1.57E-02
37.59108	              	              	1.57E-02
38.59108	              	              	1.57E-02
39.59108	              	              	1.57E-02
40.59108	              	              	1.57E-02
41.59108	              	              	1.56E-02
42.59108	              	              	1.60E-02
43.59108	              	              	1.62E-02
44.59108	              	              	1.57E-02
45.59108	              	              	1.56E-02
46.59108	              	              	1.61E-02
47.59108	              	              	1.60E-02
48.59108	              	              	1.56E-02
49.59108	              	              	1.58E-02
50.59108	              	              	1.61E-02
51.59108	              	              	1.63E-02
52.59108	              	              	1.59E-02
53.59108	              	              	1.58E-02
54.59108	              	              	1.62E-02
55.59108	              	              	1.62E-02
56.59108	              	              	1.62E-02
57.59108	              	              	1.63E-02
58.59108	              	              	1.60E-02
59.59108	              	              	1.57E-02
60.59108	              	              	1.61E-02
61.59108	              	              	1.62E-02
62.59108	              	              	1.67E-02
63.59108	              	              	1.66E-02
64.59108	              	              	1.62E-02
65.59108	              	              	1.67E-02
66.59108	              	              	1.66E-02
67.59108	              	              	1.62E-02
68.59108	              	              	1.62E-02
69.59108	              	              	1.62E-02
70.59108	              	              	1.61E-02
71.59108	              	              	1.64E-02
72.59108	              	              	1.67E-02
73.59108	              	              	1.62E-02
74.59108	              	              	1.64E-02
75.59108	              	              	1.67E-02
76.59108	              	              	1.67E-02
77.59108	              	              	1.68E-02
78.59108	              	              	1.63E-02
79.59108	              	              	1.61E-02
80.59108	              	              	1.61E-02
81.59108	              	              	1.62E-02
82.59108	              	              	1.67E-02
83.59108	              	              	1.65E-02
84.59108	              	              	1.62E-02
85.59108	              	              	1.66E-02
86.59108	              	              	1.64E-02
87.59108	1.39E-02	              	1.62E-02
88.59108	1.39E-02	              	1.64E-02
89.59108	1.39E-02	              	1.67E-02
90.59108	1.34E-02	1.28E-02	1.67E-02
91.59108	1.40E-02	1.28E-02	1.67E-02
92.59108	1.39E-02	1.28E-02	1.67E-02
93.59108	1.34E-02	1.23E-02	1.67E-02
94.59108	1.39E-02	1.28E-02	1.67E-02
95.59108	1.41E-02	1.23E-02	1.67E-02
96.59108	1.44E-02	1.28E-02	1.67E-02
97.59108	1.45E-02	1.28E-02	1.65E-02
98.59108	1.45E-02	1.28E-02	1.62E-02
99.59108	1.49E-02	1.32E-02	1.67E-02
100.591	1.44E-02	1.26E-02	1.67E-02
101.591	1.50E-02	1.34E-02	1.66E-02
102.591	1.49E-02	1.33E-02	1.68E-02
103.591	1.51E-02	1.37E-02	1.72E-02
104.591	1.55E-02	1.39E-02	1.72E-02
105.591	1.57E-02	1.38E-02	1.73E-02
106.591	1.55E-02	1.37E-02	1.70E-02
107.591	1.57E-02	1.41E-02	1.67E-02
108.591	1.61E-02	1.41E-02	1.72E-02
109.591	1.61E-02	1.44E-02	1.68E-02
110.591	1.61E-02	1.39E-02	1.70E-02
111.591	1.66E-02	1.44E-02	1.77E-02
112.591	1.66E-02	1.44E-02	1.73E-02
113.591	1.61E-02	1.50E-02	1.73E-02
114.591	1.69E-02	1.50E-02	1.78E-02
115.591	1.76E-02	1.51E-02	1.77E-02
116.591	1.72E-02	1.56E-02	1.77E-02
117.591	1.77E-02	1.55E-02	1.78E-02
118.591	1.81E-02	1.55E-02	1.76E-02
119.591	1.88E-02	1.66E-02	1.72E-02
120.591	1.92E-02	1.60E-02	1.75E-02
121.591	1.92E-02	1.62E-02	1.77E-02
122.591	2.00E-02	1.66E-02	1.77E-02
123.591	2.05E-02	1.65E-02	1.79E-02
124.591	2.10E-02	1.71E-02	1.83E-02
125.591	2.10E-02	1.72E-02	1.82E-02
126.591	2.24E-02	1.72E-02	1.88E-02
127.591	2.29E-02	1.77E-02	1.88E-02
128.591	2.41E-02	1.77E-02	1.88E-02
129.591	2.49E-02	1.83E-02	1.87E-02
130.591	2.68E-02	1.83E-02	1.93E-02
131.591	2.79E-02	1.77E-02	1.93E-02
132.591	2.95E-02	1.89E-02	1.93E-02
133.591	3.13E-02	1.89E-02	2.00E-02
134.591	3.36E-02	1.99E-02	2.03E-02
135.591	3.75E-02	1.99E-02	2.03E-02
136.591	4.02E-02	2.02E-02	2.07E-02
137.591	4.55E-02	2.10E-02	2.12E-02
138.591	5.14E-02	2.13E-02	2.16E-02
139.591	5.87E-02	2.22E-02	2.14E-02
140.591	6.90E-02	2.21E-02	2.17E-02
141.591	8.02E-02	2.35E-02	2.20E-02
142.591	9.08E-02	2.43E-02	2.26E-02
143.591	0.11195	2.53E-02	2.41E-02
144.591	0.14701	2.60E-02	2.44E-02
145.591	0.16896	2.85E-02	2.47E-02
146.591	0.20572	2.92E-02	2.57E-02
147.591	0.27237	3.03E-02	2.67E-02
148.591	0.31623	3.22E-02	2.75E-02
149.591	0.39887	3.46E-02	2.86E-02
150.591	0.46954	3.88E-02	2.94E-02
151.591	0.56493	4.14E-02	2.99E-02
152.591	0.66782	4.38E-02	3.13E-02
153.591	0.762	5.22E-02	3.32E-02
154.591	0.85862	5.52E-02	3.49E-02
155.591	0.96788	6.66E-02	3.91E-02
156.591	1.00361	8.24E-02	4.24E-02
157.591	1.02245	9.06E-02	4.49E-02
158.591	1.00496	0.10185	4.87E-02
159.591	0.9425	0.13244	5.63E-02
160.591	0.83896	0.17088	6.14E-02
161.591	0.75215	0.19172	6.70E-02
162.591	0.68883	0.21994	7.42E-02
163.591	0.58729	0.32299	8.29E-02
164.591	0.47989	0.39512	9.90E-02
165.591	0.42178	0.51923	0.12035
166.591	0.34202	0.55632	0.13274
167.591	0.29942	0.70429	0.14423
168.591	0.22879	0.86163	0.21377
169.591	0.19468	0.91902	0.27736
170.591	0.1577	0.96383	0.3451
171.591	0.12421	1.01396	0.42205
172.591	0.10486	0.98672	0.49882
173.591	8.76E-02	0.96717	0.62071
174.591	6.68E-02	0.92058	0.72092
175.591	5.42E-02	0.77158	0.82645
176.591	5.06E-02	0.69784	0.80777
177.591	3.49E-02	0.58497	0.76135
178.591	3.49E-02	0.53798	0.66718
179.591	2.66E-02	0.43553	0.54889
180.591	2.40E-02	0.39349	0.45998
181.591	2.48E-02	0.36162	0.41108
182.591	1.89E-02	0.28444	0.36449
183.591	1.89E-02	0.21971	0.25456
184.591	1.85E-02	0.19888	0.16835
185.591	1.38E-02	0.18362	0.14118
186.591	1.36E-02	0.12412	0.11805
187.591	1.33E-02	0.10845	8.30E-02
188.591	1.24E-02	9.07E-02	6.51E-02
189.591	1.12E-02	6.34E-02	5.48E-02
190.591	8.52E-03	5.67E-02	3.98E-02
191.591	5.83E-03	4.53E-02	3.01E-02
192.591	1.34E-02	4.62E-02	2.78E-02
193.591	8.61E-03	3.48E-02	2.12E-02
194.591	7.98E-03	3.03E-02	1.35E-02
195.591	8.11E-03	2.52E-02	1.91E-02
196.591	9.10E-03	1.96E-02	1.44E-02
197.591	9.04E-03	1.93E-02	1.34E-02
198.591	8.33E-03	1.97E-02	1.33E-02
199.591	3.41E-03	1.68E-02	1.07E-02
200.591	8.96E-03	1.35E-02	9.98E-03
201.591	8.46E-03	1.38E-02	9.94E-03
202.591	8.37E-03	1.39E-02	8.42E-03
203.591	3.93E-03	1.46E-02	1.07E-02
204.591	2.69E-03	9.26E-03	8.50E-03
205.591	8.73E-03	9.68E-03	8.46E-03
206.591	8.56E-03	3.86E-03	8.45E-03
207.591	-1.10E-03	7.37E-03	3.94E-03
208.591	3.48E-03	9.91E-03	8.41E-03
209.591	8.83E-03	1.08E-02	8.66E-03
210.591	3.36E-03	7.92E-03	8.54E-03
211.591	3.52E-03	8.59E-03	8.47E-03
212.591	5.71E-03	8.55E-03	4.60E-03
213.591	1.03E-02	5.36E-03	3.31E-03
214.591	0.18719	4.51E-03	-5.60E-04
215.591	0.36409	5.22E-03	4.68E-03
216.591	0.56258	8.60E-03	3.78E-03
217.591	0.63447	7.30E-03	3.21E-03
218.591	0.73393	8.70E-03	3.97E-03
219.591	0.9039	6.65E-03	7.39E-03
220.591	1.01843	5.02E-03	3.43E-03
221.591	1.20456	5.33E-03	8.81E-03
222.591	1.43913	4.16E-03	5.38E-03
223.591	1.57359	7.79E-03	4.21E-03
224.591	1.54592	6.49E-03	-1.29E-03
225.591	1.42879	-3.27E-04	3.21E-03
226.591	1.32899	3.61E-03	3.55E-03
227.591	1.37045	8.37E-03	8.47E-03
228.591	1.39099	7.83E-03	3.64E-03
229.591	1.63079	-1.12E-03	3.41E-03
230.591	1.77288	3.90E-03	1.53E-04
231.591	1.93721	2.94E-03	3.89E-03
232.591	1.96637	3.27E-03	3.49E-03
233.591	1.77211	3.20E-03	-1.05E-03
234.591	1.64533	3.37E-03	1.85E-03
235.591	1.54062	3.39E-03	3.52E-03
236.591	1.59094	3.33E-03	3.50E-03
237.591	1.67928	3.28E-03	3.50E-03
238.591	1.83018	3.33E-03
239.591	1.89303
240.591	1.62037
241.591	1.48545
242.591	1.67197
243.591	1.82352
244.591	1.81377
245.591	1.87419
246.591	1.74334
247.591	1.79707
248.591	1.8265
249.591	1.95252
250.591	2.07068
251.591	1.78049