File: Frquency Sweep TEST/Single/ExpDat_2 - Varrimento frequencia_T1_PVC_TD.txt
#EXPORTTYPE:  	DATA ALL
#FILE:        	2 - Varrimento frequencia_T1_TD.ngb-dm2
#FORMAT:      	NETZSCH5
#FTYPE:       	ANSI
#IDENTITY:    	1
#DECIMAL:     	POINT
#SEPARATOR:   	TAB
#MTYPE:       	DMA
#INSTRUMENT:  	NETZSCH DMA 242
#PROJECT:     	TMG
#DATE/TIME:   	12/3/2024 1:32:29 PM (UTC+0)
#LABORATORY:  	Piep
#OPERATOR:    	AV SR
#REMARK:
#SAMPLEHOLDER:	Tension
#SAMPLE:      	PVC_TD
#SAMPLEDIM/MM:	5.000x1.000x5.850
#MATERIAL:    	PVC
#CORR. CODE:  	0
#RANGE:       	25.0°C/00:50/25.0°C
#SEGMENT:     	S1/1
#SEG. 1:      	25.0°C/00:50/25.0°C

##Temp./°C	Time/min	E'(1.000 Hz)/MPa	tan d(1.000 Hz)	Visc.Dyn.(1.000 Hz)/MPa*s	eta"(1.000 Hz)/MPa*s	eta'(1.000 Hz)/MPa*s	c'(1.000 Hz)/(N/µm)	c"(1.000 Hz)/(N/µm)	Smpl.Ampl.(1.000 Hz)/µm	As'(1.000 Hz)/µm	As"(1.000 Hz)/µm	F Sample(1.000 Hz)/N	Fs'(1.000 Hz)/N	Fs"(1.000 Hz)/N	F dyn.(1.000 Hz)/N	Ampl.(1.000 Hz)/µm	A'(1.000 Hz)/µm	A"(1.000 Hz)/µm	F stat.(1.000 Hz)/N	F stat. s(1.000 Hz)/N	Offset(1.000 Hz)/µm	E"(1.000 Hz)/MPa	|E|(1.000 Hz)/MPa	D'(1.000 Hz)/(1/MPa)	D"(1.000 Hz)/(1/MPa)
24.82533	 1.51111	6.13235	0.15280	1.01102	0.99942	0.15271	7.174851e-003	1.096296e-003	 99.87749	99.72928	-5.43919	0.72492	0.72151	7.030741e-002	2.23740	100.087	 99.93164	-5.56641	-0.79650	-0.80446	0.51270	0.93700	6.20352	0.15935	2.434809e-002
24.83067	10.10556	6.14837	0.14972	1.01320	1.00203	0.15003	7.193587e-003	1.077054e-003	 99.91587	99.77249	-5.35081	0.72677	0.72349	6.896886e-002	2.24004	100.126	 99.97559	-5.47852	-0.80177	-0.81884	1.09863	0.92056	6.21690	0.15908	2.381794e-002
24.89633	18.76444	6.13849	0.14920	1.01149	1.00042	0.14926	7.182028e-003	1.071538e-003	100.047	99.90435	-5.33589	0.72649	0.72323	6.872884e-002	2.24180	100.256	100.107	-5.46387	-0.80177	-0.82089	1.23047	0.91584	6.20643	0.15936	2.377596e-002
24.96933	27.41444	6.12966	0.14847	1.00993	0.99898	0.14832	7.171699e-003	1.064781e-003	100.016	99.87540	-5.30653	0.72515	0.72193	6.828862e-002	2.24004	100.226	100.078	-5.43457	-0.79826	-0.82738	1.87500	0.91007	6.19685	0.15962	2.369915e-002
25.03100	36.01667	6.12274	0.14766	1.00867	0.99785	0.14734	7.163607e-003	1.057792e-003	100.015	99.87561	-5.27711	0.72424	0.72105	6.784443e-002	2.23916	100.224	100.078	-5.40527	-0.79826	-0.82306	1.59668	0.90410	6.18913	0.15984	2.360233e-002
25.06567	44.55667	6.11552	0.14732	1.00743	0.99668	0.14683	7.155161e-003	1.054066e-003	100.014	99.87585	-5.26241	0.72334	0.72017	6.762233e-002	2.23828	100.223	100.078	-5.39063	-0.79650	-0.82221	1.65527	0.90091	6.18153	0.16005	2.357711e-002

##Temp./°C	Time/min	E'(0.100 Hz)/MPa	tan d(0.100 Hz)	Visc.Dyn.(0.100 Hz)/MPa*s	eta"(0.100 Hz)/MPa*s	eta'(0.100 Hz)/MPa*s	c'(0.100 Hz)/(N/µm)	c"(0.100 Hz)/(N/µm)	Smpl.Ampl.(0.100 Hz)/µm	As'(0.100 Hz)/µm	As"(0.100 Hz)/µm	F Sample(0.100 Hz)/N	Fs'(0.100 Hz)/N	Fs"(0.100 Hz)/N	F dyn.(0.100 Hz)/N	Ampl.(0.100 Hz)/µm	A'(0.100 Hz)/µm	A"(0.100 Hz)/µm	F stat.(0.100 Hz)/N	F stat. s(0.100 Hz)/N	Offset(0.100 Hz)/µm	E"(0.100 Hz)/MPa	|E|(0.100 Hz)/MPa	D'(0.100 Hz)/(1/MPa)	D"(0.100 Hz)/(1/MPa)
24.80967	 7.85222	5.15246	0.12354	8.46105	8.39721	1.03737	6.028383e-003	7.447327e-004	101.067	100.984	-4.09348	0.61390	0.61182	5.052925e-002	2.14334	101.245	101.162	-4.10156	-0.69100	-0.68713	-0.24902	0.63652	5.19163	0.19116	2.361602e-002
24.87967	16.49556	5.16006	0.12138	8.47130	8.40959	1.02072	6.037267e-003	7.327803e-004	 99.95265	 99.87294	-3.99100	0.60787	0.60588	4.909017e-002	2.12048	100.129	100.049	-3.99902	-0.65408	-0.69276	 2.49023	0.62631	5.19793	0.19098	2.318075e-002
24.94967	25.14333	5.15739	0.12031	8.46584	8.40523	1.01121	6.034142e-003	7.259512e-004	100.01	 99.93151	-3.96156	0.60783	0.60588	4.864081e-002	2.12136	100.186	100.107	-3.96973	-0.67342	-0.71278	 2.53418	0.62047	5.19458	0.19113	2.299436e-002
25.00633	33.75667	5.15538	0.11986	8.46211	8.40197	1.00709	6.031798e-003	7.229937e-004	 99.98027	 99.90234	-3.94686	0.60738	0.60544	4.842209e-002	2.12048	100.156	100.078	-3.95508	-0.67166	-0.71512	 2.79785	0.61794	5.19229	0.19122	2.292089e-002
25.05733	42.33889	5.15050	0.11887	8.45310	8.39400	0.99779	6.026080e-003	7.163133e-004	100.009	 99.93175	-3.91743	0.60690	0.60500	4.797572e-002	2.12048	100.184	100.107	-3.92578	-0.67166	-0.71466	 2.76855	0.61223	5.18676	0.19145	2.275755e-002

##Temp./°C	Time/min	E'(0.167 Hz)/MPa	tan d(0.167 Hz)	Visc.Dyn.(0.167 Hz)/MPa*s	eta"(0.167 Hz)/MPa*s	eta'(0.167 Hz)/MPa*s	c'(0.167 Hz)/(N/µm)	c"(0.167 Hz)/(N/µm)	Smpl.Ampl.(0.167 Hz)/µm	As'(0.167 Hz)/µm	As"(0.167 Hz)/µm	F Sample(0.167 Hz)/N	Fs'(0.167 Hz)/N	Fs"(0.167 Hz)/N	F dyn.(0.167 Hz)/N	Ampl.(0.167 Hz)/µm	A'(0.167 Hz)/µm	A"(0.167 Hz)/µm	F stat.(0.167 Hz)/N	F stat. s(0.167 Hz)/N	Offset(0.167 Hz)/µm	E"(0.167 Hz)/MPa	|E|(0.167 Hz)/MPa	D'(0.167 Hz)/(1/MPa)	D"(0.167 Hz)/(1/MPa)
24.79567	 5.85000	5.34222	0.12888	5.25656	5.21345	0.67189	6.250392e-003	8.055278e-004	100.383	100.291	-4.30212	0.63262	0.63032	5.389714e-002	2.15213	100.567	100.474	-4.32129	-0.69803	-0.70213	0.26367	0.68849	5.38640	0.18413	2.373001e-002
24.86467	14.50222	5.34859	0.12691	5.26153	5.21966	0.66243	6.257845e-003	7.941836e-004	 99.94162	 99.85211	-4.22882	0.63044	0.62822	5.283761e-002	2.14334	100.124	100.034	-4.24805	-0.68924	-0.71541	1.68457	0.67879	5.39149	0.18400	2.335167e-002
24.93467	23.14778	5.34874	0.12534	5.26066	5.21982	0.65424	6.258029e-003	7.843658e-004	 99.98357	 99.89596	-4.18466	0.63060	0.62843	5.216728e-002	2.14421	100.166	100.078	-4.20410	-0.69628	-0.73200	2.29980	0.67040	5.39059	0.18407	2.307065e-002
24.99033	31.75667	5.34360	0.12487	5.25530	5.21480	0.65119	6.252017e-003	7.807093e-004	100.012	 99.92538	-4.16993	0.63014	0.62799	5.194218e-002	2.14421	100.195	100.107	-4.18945	-0.69628	-0.73405	2.43164	0.66727	5.38511	0.18427	2.300992e-002
25.04800	40.34000	5.34189	0.12394	5.25302	5.21313	0.64610	6.250016e-003	7.746066e-004	 99.98197	 99.89620	-4.14053	0.62967	0.62756	5.150189e-002	2.14334	100.165	100.078	-4.16016	-0.69452	-0.73183	2.40234	0.66206	5.38276	0.18437	2.284991e-002

##Temp./°C	Time/min	E'(0.200 Hz)/MPa	tan d(0.200 Hz)	Visc.Dyn.(0.200 Hz)/MPa*s	eta"(0.200 Hz)/MPa*s	eta'(0.200 Hz)/MPa*s	c'(0.200 Hz)/(N/µm)	c"(0.200 Hz)/(N/µm)	Smpl.Ampl.(0.200 Hz)/µm	As'(0.200 Hz)/µm	As"(0.200 Hz)/µm	F Sample(0.200 Hz)/N	Fs'(0.200 Hz)/N	Fs"(0.200 Hz)/N	F dyn.(0.200 Hz)/N	Ampl.(0.200 Hz)/µm	A'(0.200 Hz)/µm	A"(0.200 Hz)/µm	F stat.(0.200 Hz)/N	F stat. s(0.200 Hz)/N	Offset(0.200 Hz)/µm	E"(0.200 Hz)/MPa	|E|(0.200 Hz)/MPa	D'(0.200 Hz)/(1/MPa)	D"(0.200 Hz)/(1/MPa)
24.78933	 4.53889	5.41685	0.13155	4.45207	4.41404	0.58067	6.337710e-003	8.337294e-004	100.459	100.361	-4.41972	0.64216	0.63975	5.566329e-002	2.16268	100.645	100.547	-4.43848	-0.70507	-0.71781	0.82031	0.71259	5.46352	0.18147	2.387233e-002
24.85733	13.19111	5.42246	0.12875	4.45508	4.41861	0.56888	6.344274e-003	8.167976e-004	 99.94277	 99.84949	-4.31703	0.63930	0.63700	5.416838e-002	2.15213	100.128	100.034	-4.33594	-0.69803	-0.72875	1.97754	0.69812	5.46721	0.18141	2.335591e-002
24.92367	21.84000	5.41967	0.12771	4.45222	4.41635	0.56401	6.341018e-003	8.098026e-004	100	 99.90806	-4.28758	0.63925	0.63699	5.371820e-002	2.15301	100.185	100.093	-4.30664	-0.70683	-0.74460	2.43164	0.69214	5.46369	0.18155	2.318574e-002
24.98567	30.44778	5.41452	0.12725	4.44773	4.41215	0.56144	6.334992e-003	8.061200e-004	100.029	 99.93747	-4.27285	0.63879	0.63655	5.349310e-002	2.15301	100.214	100.122	-4.29199	-0.70507	-0.74853	2.79785	0.68899	5.45818	0.18175	2.312691e-002
25.04067	39.03333	5.41285	0.12632	4.44584	4.41078	0.55718	6.333029e-003	8.000006e-004	 99.99837	 99.90829	-4.24345	0.63833	0.63612	5.305281e-002	2.15213	100.183	100.093	-4.26270	-0.70331	-0.74745	2.84180	0.68376	5.45586	0.18184	2.297088e-002

##Temp./°C	Time/min	E'(0.250 Hz)/MPa	tan d(0.250 Hz)	Visc.Dyn.(0.250 Hz)/MPa*s	eta"(0.250 Hz)/MPa*s	eta'(0.250 Hz)/MPa*s	c'(0.250 Hz)/(N/µm)	c"(0.250 Hz)/(N/µm)	Smpl.Ampl.(0.250 Hz)/µm	As'(0.250 Hz)/µm	As"(0.250 Hz)/µm	F Sample(0.250 Hz)/N	Fs'(0.250 Hz)/N	Fs"(0.250 Hz)/N	F dyn.(0.250 Hz)/N	Ampl.(0.250 Hz)/µm	A'(0.250 Hz)/µm	A"(0.250 Hz)/µm	F stat.(0.250 Hz)/N	F stat. s(0.250 Hz)/N	Offset(0.250 Hz)/µm	E"(0.250 Hz)/MPa	|E|(0.250 Hz)/MPa	D'(0.250 Hz)/(1/MPa)	D"(0.250 Hz)/(1/MPa)
24.79233	 3.44333	5.50061	0.13313	3.61748	3.58584	0.47740	6.435714e-003	8.568143e-004	100.709	100.607	-4.52486	0.65385	0.65136	5.708111e-002	2.17850	100.899	100.796	-4.55566	-0.71738	-0.74036	1.47949	0.73232	5.54915	0.17863	2.378202e-002
24.84833	12.09778	5.51287	0.13118	3.62462	3.59383	0.47146	6.450052e-003	8.461478e-004	 99.91615	 99.81758	-4.43715	0.64999	0.64758	5.584056e-002	2.16268	100.105	100.005	-4.46777	-0.70331	-0.74608	2.75391	0.72320	5.56010	0.17832	2.339350e-002
24.91033	20.74333	5.51214	0.13008	3.62363	3.59336	0.46743	6.449204e-003	8.389215e-004	100.002	 99.90530	-4.40766	0.65037	0.64801	5.538678e-002	2.16443	100.191	100.093	-4.43848	-0.71913	-0.76327	2.84180	0.71703	5.55858	0.17840	2.320639e-002
24.97867	29.37111	5.50781	0.12919	3.62037	3.59053	0.46385	6.444133e-003	8.324970e-004	 99.98674	 99.89083	-4.37826	0.64968	0.64735	5.494476e-002	2.16356	100.175	100.078	-4.40918	-0.71738	-0.76493	3.06152	0.71154	5.55358	0.17858	2.307020e-002
25.03633	37.95667	5.49992	0.12875	3.61499	3.58539	0.46163	6.434910e-003	8.285061e-004	100.03	 99.93496	-4.36352	0.64900	0.64669	5.471786e-002	2.16356	100.218	100.122	-4.39453	-0.71562	-0.76340	3.07617	0.70812	5.54532	0.17886	2.302800e-002
25.07400	46.53889	5.49805	0.12833	3.61357	3.58417	0.45996	6.432722e-003	8.255197e-004	100	 99.90579	-4.34883	0.64855	0.64626	5.449937e-002	2.16268	100.189	100.093	-4.37988	-0.71386	-0.76528	3.31055	0.70557	5.54314	0.17894	2.296305e-002

##Temp./°C	Time/min	E'(0.333 Hz)/MPa	tan d(0.333 Hz)	Visc.Dyn.(0.333 Hz)/MPa*s	eta"(0.333 Hz)/MPa*s	eta'(0.333 Hz)/MPa*s	c'(0.333 Hz)/(N/µm)	c"(0.333 Hz)/(N/µm)	Smpl.Ampl.(0.333 Hz)/µm	As'(0.333 Hz)/µm	As"(0.333 Hz)/µm	F Sample(0.333 Hz)/N	Fs'(0.333 Hz)/N	Fs"(0.333 Hz)/N	F dyn.(0.333 Hz)/N	Ampl.(0.333 Hz)/µm	A'(0.333 Hz)/µm	A"(0.333 Hz)/µm	F stat.(0.333 Hz)/N	F stat. s(0.333 Hz)/N	Offset(0.333 Hz)/µm	E"(0.333 Hz)/MPa	|E|(0.333 Hz)/MPa	D'(0.333 Hz)/(1/MPa)	D"(0.333 Hz)/(1/MPa)
24.80433	 2.55000	5.63034	0.13746	2.78147	2.75556	0.37877	6.587497e-003	9.055035e-004	100.962	100.851	-4.73054	0.67134	0.66864	6.015871e-002	2.19960	101.157	101.045	-4.76074	-0.72617	-0.76371	2.41699	0.77393	5.68328	0.17432	2.396105e-002
24.83900	11.20111	5.63720	0.13502	2.78395	2.75892	0.37251	6.595519e-003	8.905391e-004	 99.96353	 99.85701	-4.61356	0.66529	0.66272	5.849775e-002	2.17850	100.157	100.049	-4.64355	-0.71562	-0.76795	3.36914	0.76114	5.68835	0.17422	2.352310e-002
24.90567	19.84778	5.64068	0.13354	2.78513	2.76062	0.36865	6.599596e-003	8.812928e-004	 99.94678	 99.84227	-4.56943	0.66546	0.66295	5.783387e-002	2.17850	100.14	100.034	-4.59961	-0.73320	-0.78348	3.23730	0.75324	5.69075	0.17418	2.325922e-002
24.97400	28.51444	5.63235	0.13257	2.78066	2.75655	0.36542	6.589843e-003	8.735859e-004	100.033	 99.93026	-4.53995	0.66497	0.66249	5.738010e-002	2.17938	100.226	100.122	-4.57031	-0.73496	-0.78274	3.07617	0.74665	5.68162	0.17448	2.312999e-002
25.03467	37.09889	5.62508	0.13219	2.77694	2.75299	0.36393	6.581338e-003	8.700088e-004	100.033	 99.93051	-4.52525	0.66408	0.66161	5.715825e-002	2.17850	100.226	100.122	-4.55566	-0.73144	-0.77968	3.10547	0.74360	5.67401	0.17472	2.309710e-002
25.06867	45.64000	5.62053	0.13180	2.77455	2.75076	0.36255	6.576016e-003	8.667228e-004	100.018	 99.91605	-4.51055	0.66341	0.66096	5.693807e-002	2.17762	100.21	100.107	-4.54102	-0.73144	-0.78127	3.20801	0.74079	5.66914	0.17488	2.304946e-002

##Temp./°C	Time/min	E'(0.500 Hz)/MPa	tan d(0.500 Hz)	Visc.Dyn.(0.500 Hz)/MPa*s	eta"(0.500 Hz)/MPa*s	eta'(0.500 Hz)/MPa*s	c'(0.500 Hz)/(N/µm)	c"(0.500 Hz)/(N/µm)	Smpl.Ampl.(0.500 Hz)/µm	As'(0.500 Hz)/µm	As"(0.500 Hz)/µm	F Sample(0.500 Hz)/N	Fs'(0.500 Hz)/N	Fs"(0.500 Hz)/N	F dyn.(0.500 Hz)/N	Ampl.(0.500 Hz)/µm	A'(0.500 Hz)/µm	A"(0.500 Hz)/µm	F stat.(0.500 Hz)/N	F stat. s(0.500 Hz)/N	Offset(0.500 Hz)/µm	E"(0.500 Hz)/MPa	|E|(0.500 Hz)/MPa	D'(0.500 Hz)/(1/MPa)	D"(0.500 Hz)/(1/MPa)
24.81933	 1.93667	5.80042	0.14189	1.90958	1.89064	0.26826	6.786488e-003	9.629190e-004	101.833	101.709	-5.02834	0.69801	0.69509	6.381243e-002	2.24004	102.036	101.909	-5.08301	-0.80177	-0.79586	-0.38086	0.82301	5.85851	0.16900	2.397889e-002
24.83333	10.54889	5.82040	0.13941	1.91550	1.89716	0.26448	6.809871e-003	9.493559e-004	 99.89730	 99.77860	-4.86837	0.68687	0.68410	6.157240e-002	2.19960	100.097	 99.97559	-4.92188	-0.72441	-0.78766	 4.07227	0.81142	5.87669	0.16853	2.349512e-002
24.90033	19.19556	5.81424	0.13790	1.91308	1.89515	0.26134	6.802659e-003	9.380881e-004	100.012	 99.89574	-4.82413	0.68679	0.68408	6.089410e-002	2.20136	100.212	100.093	-4.87793	-0.75957	-0.79916	 2.54883	0.80178	5.86926	0.16878	2.327506e-002
24.97000	27.85889	5.81000	0.13704	1.91147	1.89377	0.25952	6.797704e-003	9.315542e-004	 99.99628	 99.88126	-4.79472	0.68610	0.68343	6.045170e-002	2.20048	100.196	100.078	-4.84863	-0.75606	-0.80156	 2.92969	0.79620	5.86431	0.16894	2.315204e-002
25.03167	36.44333	5.79927	0.13664	1.90783	1.89027	0.25829	6.785149e-003	9.271186e-004	100.054	 99.94010	-4.77997	0.68519	0.68254	6.022354e-002	2.20048	100.253	100.137	-4.83398	-0.75606	-0.79906	 2.76855	0.79241	5.85316	0.16927	2.312963e-002
25.06600	44.98556	5.79549	0.13631	1.90651	1.88904	0.25750	6.780726e-003	9.242934e-004	 99.99537	 99.88176	-4.76532	0.68431	0.68168	6.000775e-002	2.19872	100.194	100.078	-4.81934	-0.75254	-0.79873	 2.97363	0.78999	5.84909	0.16940	2.309127e-002

##Temp./°C	Time/min	E'(1.666 Hz)/MPa	tan d(1.666 Hz)	Visc.Dyn.(1.666 Hz)/MPa*s	eta"(1.666 Hz)/MPa*s	eta'(1.666 Hz)/MPa*s	c'(1.666 Hz)/(N/µm)	c"(1.666 Hz)/(N/µm)	Smpl.Ampl.(1.666 Hz)/µm	As'(1.666 Hz)/µm	As"(1.666 Hz)/µm	F Sample(1.666 Hz)/N	Fs'(1.666 Hz)/N	Fs"(1.666 Hz)/N	F dyn.(1.666 Hz)/N	Ampl.(1.666 Hz)/µm	A'(1.666 Hz)/µm	A"(1.666 Hz)/µm	F stat.(1.666 Hz)/N	F stat. s(1.666 Hz)/N	Offset(1.666 Hz)/µm	E"(1.666 Hz)/MPa	|E|(1.666 Hz)/MPa	D'(1.666 Hz)/(1/MPa)	D"(1.666 Hz)/(1/MPa)
24.82933	 1.25333	6.40223	0.16177	0.63443	0.62629	      0.10131	7.490606e-003	1.211754e-003	100.428	100.253	-5.92773	0.76205	0.75814	7.707947e-002	2.28312	100.647	100.459	-6.15234	-0.83694	-0.82556	-0.73242	1.03569	6.48546	0.15221	2.462336e-002
24.82800	 9.85667	6.40518	0.15948	0.63450	0.62658	9.992736e-002	7.494058e-003	1.195158e-003	 99.95490	 99.78496	-5.82600	0.75853	0.75476	7.559836e-002	2.27257	100.173	 99.99023	-6.04980	-0.82815	-0.82997	 0.11719	1.02150	6.48612	0.15225	2.428114e-002
24.89533	18.51333	6.39669	0.15812	0.63352	0.62575	9.894324e-002	7.484124e-003	1.183387e-003	100.04	 99.87286	-5.78164	0.75801	0.75430	7.491774e-002	2.27345	100.258	100.078	-6.00586	-0.83694	-0.83330	-0.23438	1.01144	6.47616	0.15252	2.411605e-002
24.96733	27.16333	6.39050	0.15785	0.63288	0.62514	9.867983e-002	7.476880e-003	1.180237e-003	 99.99565	 99.82921	-5.76706	0.75691	0.75322	7.470251e-002	2.27169	100.213	100.034	-5.99121	-0.83342	-0.83934	 0.38086	1.00875	6.46962	0.15268	2.410047e-002
25.03167	35.76889	6.37949	0.15747	0.63176	0.62407	9.827301e-002	7.464008e-003	1.175371e-003	100.054	 99.88802	-5.75221	0.75600	0.75233	7.447098e-002	2.27169	100.271	100.093	-5.97656	-0.83342	-0.83547	 0.13184	1.00459	6.45811	0.15296	2.408677e-002
25.06567	44.30778	6.36763	0.15724	0.63056	0.62291	9.794466e-002	7.450126e-003	1.171444e-003	100.038	 99.87380	-5.73755	0.75446	0.75079	7.425109e-002	2.26993	100.256	100.078	-5.96191	-0.83166	-0.83417	 0.16113	1.00123	6.44587	0.15326	2.409757e-002

##Temp./°C	Time/min	E'(2.000 Hz)/MPa	tan d(2.000 Hz)	Visc.Dyn.(2.000 Hz)/MPa*s	eta"(2.000 Hz)/MPa*s	eta'(2.000 Hz)/MPa*s	c'(2.000 Hz)/(N/µm)	c"(2.000 Hz)/(N/µm)	Smpl.Ampl.(2.000 Hz)/µm	As'(2.000 Hz)/µm	As"(2.000 Hz)/µm	F Sample(2.000 Hz)/N	Fs'(2.000 Hz)/N	Fs"(2.000 Hz)/N	F dyn.(2.000 Hz)/N	Ampl.(2.000 Hz)/µm	A'(2.000 Hz)/µm	A"(2.000 Hz)/µm	F stat.(2.000 Hz)/N	F stat. s(2.000 Hz)/N	Offset(2.000 Hz)/µm	E"(2.000 Hz)/MPa	|E|(2.000 Hz)/MPa	D'(2.000 Hz)/(1/MPa)	D"(2.000 Hz)/(1/MPa)
24.83200	 1.05556	6.48610	0.16533	0.53571	0.52853	8.738437e-002	7.588733e-003	1.254670e-003	100.618	100.43	-6.14215	0.77393	0.76984	7.939564e-002	2.29806	100.839	100.635	-6.41602	-0.84925	-0.82649	-1.46484	1.07237	6.57415	0.15007	2.481217e-002
24.82633	 9.65667	6.49487	0.16297	0.53623	0.52925	8.625395e-002	7.598998e-003	1.238439e-003	 99.92478	 99.74287	-6.02664	0.76935	0.76541	7.772905e-002	2.28312	100.145	 99.94629	-6.29883	-0.83694	-0.82806	-0.57129	1.05850	6.58056	0.14998	2.444350e-002
24.89367	18.30667	6.48352	0.16164	0.53518	0.52832	8.539752e-002	7.585720e-003	1.226143e-003	100.025	 99.84546	-5.98220	0.76861	0.76473	7.704551e-002	2.28400	100.244	100.049	-6.25488	-0.84925	-0.83514	-0.90820	1.04799	6.56767	0.15031	2.429586e-002
24.96533	26.99111	6.47670	0.16086	0.53455	0.52777	8.489851e-002	7.577744e-003	1.218978e-003	100.023	 99.84562	-5.95279	0.76769	0.76386	7.660093e-002	2.28312	100.242	100.049	-6.22559	-0.84573	-0.84391	-0.11719	1.04186	6.55997	0.15050	2.421066e-002
25.02833	35.59556	6.46704	0.16010	0.53369	0.52698	8.437175e-002	7.566438e-003	1.211415e-003	100.036	 99.86050	-5.92333	0.76656	0.76276	7.615396e-002	2.28224	100.255	100.063	-6.19629	-0.84397	-0.83942	-0.29297	1.03540	6.54940	0.15077	2.413813e-002
25.06500	44.13556	6.45953	0.16022	0.53308	0.52637	8.433528e-002	7.557646e-003	1.210891e-003	100.036	 99.86076	-5.92334	0.76568	0.76188	7.615396e-002	2.28136	100.255	100.063	-6.19629	-0.84397	-0.83806	-0.38086	1.03495	6.54191	0.15094	2.418298e-002

##Temp./°C	Time/min	E'(2.500 Hz)/MPa	tan d(2.500 Hz)	Visc.Dyn.(2.500 Hz)/MPa*s	eta"(2.500 Hz)/MPa*s	eta'(2.500 Hz)/MPa*s	c'(2.500 Hz)/(N/µm)	c"(2.500 Hz)/(N/µm)	Smpl.Ampl.(2.500 Hz)/µm	As'(2.500 Hz)/µm	As"(2.500 Hz)/µm	F Sample(2.500 Hz)/N	Fs'(2.500 Hz)/N	Fs"(2.500 Hz)/N	F dyn.(2.500 Hz)/N	Ampl.(2.500 Hz)/µm	A'(2.500 Hz)/µm	A"(2.500 Hz)/µm	F stat.(2.500 Hz)/N	F stat. s(2.500 Hz)/N	Offset(2.500 Hz)/µm	E"(2.500 Hz)/MPa	|E|(2.500 Hz)/MPa	D'(2.500 Hz)/(1/MPa)	D"(2.500 Hz)/(1/MPa)
24.83333	 0.84444	6.61456	0.16984	0.43738	0.43120	7.323698e-002	7.739032e-003	1.314426e-003	100.856	100.652	-6.40679	0.79170	0.78737	8.271728e-002	2.31828	101.08	100.854	-6.75293	-0.86859	-0.82877	-2.56348	1.12344	6.70928	0.14694	2.495732e-002
24.82433	 9.44667	6.62022	0.16716	0.43756	0.43157	7.214274e-002	7.745658e-003	1.294787e-003	 99.95650	 99.76009	-6.26319	0.78497	0.78082	8.065559e-002	2.29806	100.179	 99.96094	-6.60645	-0.85100	-0.82962	-1.37695	1.10666	6.71208	0.14695	2.456396e-002
24.89133	18.08333	6.61165	0.16582	0.43690	0.43101	7.147156e-002	7.735633e-003	1.282741e-003	100.041	 99.84793	-6.21872	0.78445	0.78036	7.997331e-002	2.29894	100.264	100.049	-6.56250	-0.86507	-0.83458	-1.96289	1.09636	6.70194	0.14720	2.440915e-002
24.96267	26.78111	6.60309	0.16514	0.43628	0.43045	7.108613e-002	7.725610e-003	1.275824e-003	100.011	 99.81891	-6.18943	0.78311	0.77906	7.953424e-002	2.29718	100.233	100.02	-6.53320	-0.86331	-0.84124	-1.42090	1.09045	6.69252	0.14742	2.434588e-002
25.01967	35.37556	6.59344	0.16439	0.43559	0.42983	7.066024e-002	7.714322e-003	1.268180e-003	100.024	 99.83378	-6.15996	0.78197	0.77796	7.908728e-002	2.29630	100.245	100.034	-6.50391	-0.86155	-0.83857	-1.47949	1.08391	6.68194	0.14768	2.427673e-002
25.06633	43.93000	6.58306	0.16453	0.43492	0.42915	7.060627e-002	7.702182e-003	1.267211e-003	100.039	 99.84875	-6.15992	0.78087	0.77686	7.908465e-002	2.29543	100.26	100.049	-6.50391	-0.85980	-0.83841	-1.37695	1.08309	6.67157	0.14790	2.433368e-002

##Temp./°C	Time/min	E'(3.333 Hz)/MPa	tan d(3.333 Hz)	Visc.Dyn.(3.333 Hz)/MPa*s	eta"(3.333 Hz)/MPa*s	eta'(3.333 Hz)/MPa*s	c'(3.333 Hz)/(N/µm)	c"(3.333 Hz)/(N/µm)	Smpl.Ampl.(3.333 Hz)/µm	As'(3.333 Hz)/µm	As"(3.333 Hz)/µm	F Sample(3.333 Hz)/N	Fs'(3.333 Hz)/N	Fs"(3.333 Hz)/N	F dyn.(3.333 Hz)/N	Ampl.(3.333 Hz)/µm	A'(3.333 Hz)/µm	A"(3.333 Hz)/µm	F stat.(3.333 Hz)/N	F stat. s(3.333 Hz)/N	Offset(3.333 Hz)/µm	E"(3.333 Hz)/MPa	|E|(3.333 Hz)/MPa	D'(3.333 Hz)/(1/MPa)	D"(3.333 Hz)/(1/MPa)
24.83733	 0.61111	6.78529	0.17681	0.33693	0.33178	5.866404e-002	7.938787e-003	1.403696e-003	101.091	100.863	-6.78388	0.81499	0.81025	8.772529e-002	2.34378	101.319	101.06	-7.25098	-0.89144	-0.82865	-4.04297	1.19974	6.89054	0.14291	2.526859e-002
24.82200	 9.21222	6.78849	0.17393	0.33692	0.33194	5.773411e-002	7.942537e-003	1.381445e-003	 99.98533	 99.76640	-6.61297	0.80606	0.80153	8.529805e-002	2.31828	100.211	 99.96094	-7.07520	-0.87035	-0.83053	-2.56348	1.18072	6.89041	0.14298	2.486896e-002
24.89067	17.84778	6.77199	0.17315	0.33606	0.33113	5.733691e-002	7.923228e-003	1.371941e-003	100.071	 99.85451	-6.58311	0.80469	0.80020	8.483496e-002	2.31828	100.297	100.049	-7.04590	-0.88793	-0.82832	-3.83789	1.17260	6.87276	0.14337	2.482488e-002
24.96067	26.53667	6.76352	0.17249	0.33560	0.33072	5.704607e-002	7.913316e-003	1.364982e-003	100.04	 99.82546	-6.55385	0.80334	0.79890	8.439721e-002	2.31653	100.265	100.02	-7.01660	-0.88441	-0.83367	-3.26660	1.16665	6.86340	0.14358	2.476637e-002
25.01800	35.14111	6.75216	0.17184	0.33500	0.33016	5.673614e-002	7.900024e-003	1.357566e-003	100.024	 99.81111	-6.52452	0.80178	0.79737	8.395629e-002	2.31477	100.249	100.005	-6.98730	-0.88441	-0.83595	-3.12012	1.16031	6.85113	0.14385	2.472013e-002
25.06500	43.69444	6.74504	0.17153	0.33463	0.32981	5.657172e-002	7.891692e-003	1.353632e-003	100.023	 99.81129	-6.50982	0.80088	0.79649	8.373425e-002	2.31389	100.248	100.005	-6.97266	-0.88265	-0.83578	-3.01758	1.15695	6.84354	0.14402	2.470319e-002

##Temp./°C	Time/min	E'(5.000 Hz)/MPa	tan d(5.000 Hz)	Visc.Dyn.(5.000 Hz)/MPa*s	eta"(5.000 Hz)/MPa*s	eta'(5.000 Hz)/MPa*s	c'(5.000 Hz)/(N/µm)	c"(5.000 Hz)/(N/µm)	Smpl.Ampl.(5.000 Hz)/µm	As'(5.000 Hz)/µm	As"(5.000 Hz)/µm	F Sample(5.000 Hz)/N	Fs'(5.000 Hz)/N	Fs"(5.000 Hz)/N	F dyn.(5.000 Hz)/N	Ampl.(5.000 Hz)/µm	A'(5.000 Hz)/µm	A"(5.000 Hz)/µm	F stat.(5.000 Hz)/N	F stat. s(5.000 Hz)/N	Offset(5.000 Hz)/µm	E"(5.000 Hz)/MPa	|E|(5.000 Hz)/MPa	D'(5.000 Hz)/(1/MPa)	D"(5.000 Hz)/(1/MPa)
24.84067	 0.39222	7.03021	0.18630	0.23309	0.22915	4.269078e-002	8.225340e-003	1.532392e-003	101.646	101.375	-7.41643	0.85045	0.84521	9.434295e-002	2.38246	101.882	101.558	-8.12988	-1.07079	-0.82142	-16.05469	1.30974	7.15117	0.13747	2.561121e-002
24.82233	 8.99444	7.04397	0.18368	0.23344	0.22960	4.217237e-002	8.241441e-003	1.513784e-003	 99.93842	 99.67810	-7.20866	0.83742	0.83240	9.148133e-002	2.34378	100.171	 99.85840	-7.91016	-0.89496	-0.82124	 -4.74609	1.29383	7.16181	0.13733	2.522509e-002
24.88900	17.62889	7.01789	0.18245	0.23252	0.22875	4.173404e-002	8.210930e-003	1.498049e-003	100.111	 99.85403	-7.16322	0.83557	0.83063	9.076955e-002	2.34466	100.343	100.034	-7.86621	-0.92309	-0.81001	 -7.28027	1.28038	7.13373	0.13790	2.515976e-002
24.95867	26.30111	7.00787	0.18190	0.23217	0.22842	4.154949e-002	8.199208e-003	1.491425e-003	100.05	 99.79575	-7.13426	0.83380	0.82889	9.034263e-002	2.34202	100.282	 99.97559	-7.83691	-0.91782	-0.81975	 -6.31348	1.27472	7.12286	0.13813	2.512503e-002
25.01733	34.90444	6.99663	0.18127	0.23177	0.22805	4.133983e-002	8.186059e-003	1.483899e-003	100.034	 99.78134	-7.10496	0.83223	0.82736	8.990381e-002	2.34026	100.265	 99.96094	-7.80762	-0.91606	-0.81868	 -6.26953	1.26829	7.11065	0.13838	2.508415e-002
25.06500	43.47778	6.98665	0.18098	0.23143	0.22773	4.121381e-002	8.174385e-003	1.479376e-003	100.048	 99.79620	-7.09015	0.83111	0.82626	8.967845e-002	2.33938	100.279	 99.97559	-7.79297	-0.91606	-0.82118	 -6.10840	1.26442	7.10015	0.13859	2.508175e-002

##Temp./°C	Time/min	E'(10.000 Hz)/MPa	tan d(10.000 Hz)	Visc.Dyn.(10.000 Hz)/MPa*s	eta"(10.000 Hz)/MPa*s	eta'(10.000 Hz)/MPa*s	c'(10.000 Hz)/(N/µm)	c"(10.000 Hz)/(N/µm)	Smpl.Ampl.(10.000 Hz)/µm	As'(10.000 Hz)/µm	As"(10.000 Hz)/µm	F Sample(10.000 Hz)/N	Fs'(10.000 Hz)/N	Fs"(10.000 Hz)/N	F dyn.(10.000 Hz)/N	Ampl.(10.000 Hz)/µm	A'(10.000 Hz)/µm	A"(10.000 Hz)/µm	F stat.(10.000 Hz)/N	F stat. s(10.000 Hz)/N	Offset(10.000 Hz)/µm	E"(10.000 Hz)/MPa	|E|(10.000 Hz)/MPa	D'(10.000 Hz)/(1/MPa)	D"(10.000 Hz)/(1/MPa)
24.84633	 0.14556	7.57535	0.20515	0.12603	0.12346	2.532765e-002	8.863164e-003	1.818280e-003	 93.87749	93.52685	-8.10629	0.84938	0.84368	9.821057e-002	2.23740	 94.10830	93.63281	 -9.44824	-0.82815	-0.75192	 -4.90723	1.55409	7.73312	0.12668	2.598754e-002
24.81867	 8.75111	7.55024	0.20413	0.12559	0.12305	2.511846e-002	8.833786e-003	1.803261e-003	100.067	99.69870	-8.57279	0.90220	0.89618	      0.10405	2.38246	100.315	99.81445	-10.00488	-1.09540	-0.79188	-19.54102	1.54125	7.70595	0.12715	2.595497e-002
24.88800	17.39222	7.52275	0.20279	0.12510	0.12260	2.486251e-002	8.801623e-003	1.784887e-003	100.134	99.77189	-8.51292	0.89928	0.89335	      0.10315	2.38070	100.382	99.88770	 -9.94629	-0.99167	-0.77756	-13.78418	1.52554	7.67588	0.12768	2.589217e-002
24.95567	26.04778	7.51147	0.20241	0.12490	0.12242	2.477814e-002	8.788423e-003	1.778830e-003	100.045	99.68424	-8.48484	0.89706	0.89116	      0.10275	2.37719	100.291	99.79980	 -9.91699	-0.98639	-0.78981	-12.65625	1.52037	7.66379	0.12789	2.588576e-002
25.01500	34.66889	7.49408	0.20224	0.12461	0.12213	2.470086e-002	8.768072e-003	1.773282e-003	100.058	99.69924	-8.46994	0.89508	0.88919	      0.10253	2.37543	100.304	99.81445	 -9.90234	-0.98639	-0.79117	-12.56836	1.51563	7.64581	0.12820	2.592659e-002
25.06333	43.24111	7.48603	0.20165	0.12446	0.12200	2.460231e-002	8.758656e-003	1.766207e-003	100.027	99.66990	-8.44098	0.89373	0.88788	      0.10211	2.37367	100.272	99.78516	 -9.87305	-0.98463	-0.79078	-12.48047	1.50958	7.63672	0.12836	2.588464e-002